# FILTER  = 'clear   '           / Filter
# EXPTIME =              300.016 / Total exposure time (sec); avg. of R&B         
# OBJECT  = 'ZTF20aalxlis'       / User-specified object name
# TARGNAME= 'ZTF20aalxlis_S1'    / Target name (from starlist)
# DICHNAME= '560     '           / Dichroic
# GRISNAME= '400/3400'           / Blue grism                                     
# GRANAME = '400/8500'           / Red grating                                    
# WAVELEN =        7829.41406250 / Red specified central wavelength               
# BLUFILT = 'clear   '           / Blue filter                                    
# REDFILT = 'Clear   '           / Red filter                                     
# SLITNAME= 'long_1.0'           / Slitmask
# INSTRUME= 'LRIS+LRISBLUE'      / Camera                                         
# TELESCOP= 'Keck I  '           / Telescope name
# BLUDET  = 'LRISB   '           / LRIS blue detector                             
# REDDET  = 'LRISR3  '           / LRIS red detector                              
# OBSERVER= 'Yao, Sharma'        / Observer name
# REDUCER = '        '           / Name of reducer
# LPIPEVER= '2019.03 '           / LPipe version number
# HOSTNAME= 'gayatri '           / LPipe host computer name
# IDLVER  = '8.1     '           / IDL version number
# DATE    = '2020-03-22T12:10:55' / UT end of last exposure                       
# UTC     = '12:05:40.92'        / Universal time (excl. day) at start
# MJD-OBS = '58930.503952'       / MJD at start
# JD      =        2458931.00395 / Julian date at start
# JDMID   =        2458931.00569 / Julian date at midpoint
# JDEND   =        2458931.00759 / Julian date end of last exposure               
# MJD     =        58930.5039520 / Mean julian date at start
# MJDMID  =        58930.5056881 / Mean julian date at midpoint
# MJDEND  =        58930.5075896 / Mean julian date end of last exposure          
# DATE_BEG= '2020-03-22T12:05:41' / UT start of first exposure                    
# DATE_END= '2020-03-22T12:10:55' / UT end of last exposure                       
# OBSDATE = '2020-03-22T12:05:41' / UT start of first exposure                    
# AZ      =        25.0054225800 / Telescope azimuth (deg)
# EL      =        67.1011387800 / Telescope elevation (deg)
# RA      = '14:33:57.05'        / Right ascension
# DEC     = '+40:14:37.3'        / Telescope declination
# HA      = '+23:11:38.84'       / Hour angle at start
# ST      = '13:45:35.89'        / Sidereal time at start
# EQUINOX =        2000.00000000 / Equinox of RA/DEC
# AIRMASS =              1.08534 / Approximate av. airmass of combined spectrum   
# SUNELEV =       -57.9702000000 / Sun elevation (deg)
# MOONELEV=       -48.7286000000 / Moon elevation (deg)
# MOONDIST=        124.807536293 / Distance to moon (deg)
# MOONPHAS=      0.0336381534968 / Lunar phase (1 = full)
# PARANGLE=       -149.575937183 / Parallactic angle (at start, deg)
# OFFPA   =        359.575967701 / Slit rotation vs. parallactic angle (deg)
# SLITPA  =              210.000 / Slit or right chip CCW from North (deg)
# ROTPOSN =        120.000019110 / Rotator angle (deg; 90 = slit north)
# ROTPPOSN=       -91.9352580300 / Rotator physical position (deg)
# DOMEPOSN=        25.3268022200 / Dome azimuth angle (deg)
# TRAPDOOR= 'open    '           / Trapdoor status (open/closed)
# CURRINST= 'LRISADC '           / ADC instrument
# ADCWAVE0=        3400.00000000 / ADC min. compensation wavelength (Ang)
# ADCWAVE1=        9000.00000000 / ADC max. compensation wavelength (Ang)
# PREPARED= '2020-03-22T17:43:39' / Timestamp of prepare reduction step
# TOTALEXP=              300.016 / Total exposure time (sec); avg. of R&B         
# EXTDATE = '2020-03-22T17:53:25' / UT time 1D spectrum extracted by specextract
# REDUCED = '2020-03-22T17:54:57' / Timestamp of connect reduction step           
# MINWAV  =        1829.89185387 / Minimum wavelength                             
# MAXWAV  =        10307.3404462 / Maximum wavelength                             
# SOLFILE = 'fpb200322_0010r_arc.sol' / Secondary wave calibration solution
# BLUFILE = 'celsb200322_0034r_ZTF20aalxlis.spec' / Blue spectrum file            
# REDFILE = 'celsr200322_0040r_ZTF20aalxlis.spec' / Red spectrum file             
# JDSTART =        2458931.00395 / Julian date start of first exposure            
# MJDSTART=        58930.5039520 / Mean julian date start of first exposure       
# RESCALER=        1.04878371719 / Rescaling factor applied to red                
# RESCALEB=              1.00000 / (blue not rescaled)                            
# WAVOVER = '5561.44-5724.10'    / Wavelength region of useable red-blue overlap  
# ATCHWAV =        5664.78515625 / Red-blue connection wavelength                 
# BLUDBEG = '2020-03-22T12:05:41' / UT start of first blue exposure               
# REDDBEG = '2020-03-22T12:05:55' / UT start of first red exposure                
# BLUDEND = '2020-03-22T12:10:40' / UT end of last blue exposure                  
# REDDEND = '2020-03-22T12:10:55' / UT end of last red exposure                   
# BLUNEXP =                    1 / Num. blue exposures summed                     
# REDNEXP =                    1 / Num. red exposures summed                      
# BLUEXPTM=              300.000 / Blue exposure time                             
# REDEXPTM=              300.031 / Red exposure time                              
# REDEXP1 =              300.031 /                                                
# BLUEXP1 =              300.000 /                                                
# BLUAIR1 =              1.08545 /                                                
# REDAIR1 =              1.08522 /                                                
# BLUBIN  = '2,2     '           / Blue binning (spat,spec)                       
# REDBIN  = '2,1     '           / Red binning (spat,spec)                        
# BLUXCENT=                 1587 / Blue X reference pixel for extraction          
# REDXCENT=                 2048 / Red X reference pixel for extraction           
# BLUYCENT=              109.150 / Blue Y extraction center position              
# REDYCENT=              66.1300 / Red Y extraction center position               
# BLUAPRAD=              2.88000 / Blue extraction aperture half-width            
# REDAPRAD=              2.88000 / Red extraction aperture half-width             
# BLUBKDST=              5.90000 / Blue background aper. inner edge distance      
# REDBKDST=              5.90000 / Red background aper. inner edge distance       
# BLUBKWID=              14.0000 / Blue background aperture width                 
# REDBKWID=              14.0000 / Red background aperture width                  
# BLUCWAV =        3617.30445269 / Blue central wavelength (Ang)                  
# REDCWAV =        7855.23281719 / Red central wavelength (Ang)                   
# BLUDISP =        2.08334499732 / Blue dispersion (Ang/pix)                      
# REDDISP =        1.19939343776 / Red dispersion (Ang/pix)                       
# BLU2DSPC= 'lsb200322_0034r_ZTF20aalxlis.fits' / Blue 2D spectrum file           
# RED2DSPC= 'lsr200322_0040r_ZTF20aalxlis.fits' / Red 2D spectrum file            
# BLU2DS1 = 'szfpb200322_0034r.fits' / Individual blue 2D spectra                 
# RED2DS1 = 'szfpr200322_0040r.fits' / Individual red 2D spectra                  
# BLUARCF = 'fpb200322_0010r_arc.fits' / Blue arc file                            
# REDARCF = 'fpr200322_0010r_arc.fits' / Red arc file                             
# BLUSOL  = 'fpb200322_0010r_arc.sol' / Blue arc solution file                    
# REDSOL  = 'fpr200322_0010r_arc.sol' / Red arc solution file                     
# BLUFLEX =              2.27445 / Blue flexure correction (Ang)                  
# REDFLEX =              5.96282 / Red flexure correction (Ang)                   
# BLUTRAC = 'lsb200322_0034r_ZTF20aalxlis.trace' / Blue tracing file              
# REDTRAC = 'lsr200322_0040r_ZTF20aalxlis.trace' / Red tracing file               
# BLUFCAL1= 'elsb200322_0022_Feige34.response' / Blue flux standard file          
# REDFCAL1= 'elsr200322_0024_Feige34.response' / Red flux standard file           
# BLUFAIR1=              1.09401 / Blue flux standard airmass                     
# REDFAIR1=              1.09391 / Red flux standard airmass                      
# BLUFNAM1= 'Feige34 '           / Blue flux standard star name                   
# REDFNAM1= 'Feige34 '           / Red flux standard star name                    
# BLUFLAT = 'lb200218_0013s11_domflat.fits' / Blue flat field file name           
# REDFLAT = 'lr200218_0013s5_domflat.fits' / Red flat field file name             
# KOAID1  = '           0'       /                                                
# KOAID2  = '           0'       /                                                
# HISTORY Processed by lrisprepare 2020-03-22 17:43:39 UT
# HISTORY Processed by flatproc 2020-03-22 17:44:02 UT
# HISTORY Processed by lrissplit 2020-03-22 17:44:06 UT
# HISTORY Processed by pzapspec 2020-03-22 17:44:24 UT
# HISTORY Processed by subtractsky2 2020-03-22 17:48:27 UT
# HISTORY Processed by combinesum 2020-03-22 17:51:51 UT
# HISTORY Processed by specextract 2020-03-22 17:53:25 UT
# HISTORY Processed by specwavcal 2020-03-22 17:54:00 UT
# HISTORY Processed by lrisfluxcal 2020-03-22 17:54:42 UT
# HISTORY Processed by lrisconnect 2020-03-22 17:54:57 UT                         
# COMMENT Wavelengths are Angstroms in air                                        
# COMMENT Fluxes are erg/cm^2/s/Ang; absolute calibration is approximate          
# END                                                                             
##   wavelen         flux     sky_flux     flux_unc  xpixel    ypixel     response   flag 
       3061.6785   3.1718500e-17
       3063.6265  -1.3771200e-17
       3065.5750  -2.9130800e-17
       3067.5242   2.7212200e-17
       3069.4739  -8.6297200e-17
       3071.4241   5.3919700e-17
       3073.3750   9.7172300e-17
       3075.3267   1.0295200e-16
       3077.2788   8.9418600e-17
       3079.2314   4.9307300e-18
       3081.1848   1.2355500e-16
       3083.1387  -4.5157900e-18
       3085.0930   2.3886500e-17
       3087.0481   5.2068000e-17
       3089.0039   8.7611400e-17
       3090.9602  -8.3134200e-17
       3092.9170   3.2620700e-17
       3094.8745   5.3409100e-17
       3096.8325   8.3694400e-18
       3098.7913  -2.8694200e-17
       3100.7505   1.0684200e-16
       3102.7102   9.3282200e-17
       3104.6707   9.3019300e-17
       3106.6316   5.2882900e-17
       3108.5930   3.2573700e-19
       3110.5554   3.2994700e-17
       3112.5181   2.3039400e-17
       3114.4812   6.9504600e-17
       3116.4453   3.8724000e-17
       3118.4097   2.2126300e-17
       3120.3748   3.5666700e-17
       3122.3403   6.5366200e-17
       3124.3064   7.8369300e-17
       3126.2732   4.4057200e-17
       3128.2405   3.6681700e-17
       3130.2085   5.3040800e-17
       3132.1770   5.9023100e-17
       3134.1460   3.6673400e-17
       3136.1157   4.9331400e-17
       3138.0859   4.8590600e-17
       3140.0569   5.6150800e-17
       3142.0281   3.2705600e-17
       3144.0000   3.9430100e-17
       3145.9727   5.4348400e-17
       3147.9456   4.2181200e-17
       3149.9192   4.1900800e-17
       3151.8933   8.8945800e-17
       3153.8682   5.1506500e-17
       3155.8435  -8.7708100e-18
       3157.8193   6.1684400e-17
       3159.7959   1.2480800e-17
       3161.7729   3.7740500e-17
       3163.7505   7.0453900e-17
       3165.7285   7.0075900e-17
       3167.7073   3.9776800e-17
       3169.6865   6.2811200e-17
       3171.6665   1.6132700e-17
       3173.6467   5.4166300e-17
       3175.6277   5.4045000e-17
       3177.6091   4.3199600e-17
       3179.5913   3.2171900e-17
       3181.5737   5.9532500e-17
       3183.5569   4.8014600e-17
       3185.5405   8.5023300e-17
       3187.5249   2.9451700e-17
       3189.5098   5.1806100e-17
       3191.4951   9.1604000e-17
       3193.4810   2.2000400e-17
       3195.4673   5.0027500e-17
       3197.4543   6.1173400e-17
       3199.4419   5.1283400e-17
       3201.4299   8.3484900e-17
       3203.4187   6.2345000e-17
       3205.4077   6.7105300e-17
       3207.3977   7.0539000e-17
       3209.3877   6.6773200e-17
       3211.3787   8.3422300e-17
       3213.3701   3.3449400e-17
       3215.3618   7.5878500e-17
       3217.3542   4.2443300e-17
       3219.3474   6.7123300e-17
       3221.3408   5.9332500e-17
       3223.3347   5.0935800e-17
       3225.3293   4.9083800e-17
       3227.3245   6.7233700e-17
       3229.3203   4.9587000e-17
       3231.3164   5.2906500e-17
       3233.3130   4.4451400e-17
       3235.3103   5.4268900e-17
       3237.3081   9.1125400e-17
       3239.3064   7.0427500e-17
       3241.3054   4.3277000e-17
       3243.3047   6.6803600e-17
       3245.3047   5.0152600e-17
       3247.3052   4.8172500e-17
       3249.3059   4.9524200e-17
       3251.3076   5.0420900e-17
       3253.3096   6.6390600e-17
       3255.3120   5.6911100e-17
       3257.3152   5.1255300e-17
       3259.3186   6.6681200e-17
       3261.3228   5.4213900e-17
       3263.3274   5.6796800e-17
       3265.3325   7.5290300e-17
       3267.3384   6.1121200e-17
       3269.3445   6.8703800e-17
       3271.3513   6.4699900e-17
       3273.3584   6.3917200e-17
       3275.3662   5.1695700e-17
       3277.3745   6.9597100e-17
       3279.3833   5.4088500e-17
       3281.3926   5.4019000e-17
       3283.4023   4.3854600e-17
       3285.4126   5.6302600e-17
       3287.4236   4.3253900e-17
       3289.4348   6.5844700e-17
       3291.4468   5.2455600e-17
       3293.4590   5.8606900e-17
       3295.4719   5.8502000e-17
       3297.4854   6.3589000e-17
       3299.4993   4.0988800e-17
       3301.5137   4.7453400e-17
       3303.5286   6.5542500e-17
       3305.5439   4.2686800e-17
       3307.5598   5.4995900e-17
       3309.5762   6.7236100e-17
       3311.5933   5.4772000e-17
       3313.6106   5.2448900e-17
       3315.6284   4.4766000e-17
       3317.6470   7.0609200e-17
       3319.6660   6.0031100e-17
       3321.6853   4.7782400e-17
       3323.7051   6.5346900e-17
       3325.7256   5.4695100e-17
       3327.7466   5.5139400e-17
       3329.7681   6.5039900e-17
       3331.7898   6.1740500e-17
       3333.8123   6.4203800e-17
       3335.8352   4.9251700e-17
       3337.8586   6.5509200e-17
       3339.8823   6.5481300e-17
       3341.9067   5.0673300e-17
       3343.9316   5.1684200e-17
       3345.9570   5.9205400e-17
       3347.9829   5.7987800e-17
       3350.0093   7.0985600e-17
       3352.0359   4.7644600e-17
       3354.0632   6.2330100e-17
       3356.0911   4.4531400e-17
       3358.1194   6.7142700e-17
       3360.1482   5.0168300e-17
       3362.1775   4.4187800e-17
       3364.2070   6.6310700e-17
       3366.2373   5.8944700e-17
       3368.2681   5.6585300e-17
       3370.2993   5.3768300e-17
       3372.3308   6.1459100e-17
       3374.3630   6.3275800e-17
       3376.3955   5.2489100e-17
       3378.4287   5.8354200e-17
       3380.4624   6.2166100e-17
       3382.4963   4.8796200e-17
       3384.5308   5.9760300e-17
       3386.5659   5.6409800e-17
       3388.6013   6.2298600e-17
       3390.6372   6.9390300e-17
       3392.6736   5.2182100e-17
       3394.7104   5.1249900e-17
       3396.7478   6.9447800e-17
       3398.7856   5.3764400e-17
       3400.8240   5.5905100e-17
       3402.8628   4.7516900e-17
       3404.9019   5.3237400e-17
       3406.9417   3.9117300e-17
       3408.9817   5.5111400e-17
       3411.0225   6.1876400e-17
       3413.0635   6.2365000e-17
       3415.1050   4.8356900e-17
       3417.1472   6.3011800e-17
       3419.1895   5.4775000e-17
       3421.2324   5.6688700e-17
       3423.2759   5.1428700e-17
       3425.3196   5.3821000e-17
       3427.3640   6.0605500e-17
       3429.4087   5.3328100e-17
       3431.4541   5.2130000e-17
       3433.4998   5.5562900e-17
       3435.5459   5.8193800e-17
       3437.5925   4.8258000e-17
       3439.6394   7.0255200e-17
       3441.6870   6.0417600e-17
       3443.7351   5.0943600e-17
       3445.7834   5.1853500e-17
       3447.8323   5.9307000e-17
       3449.8816   4.6155200e-17
       3451.9314   5.0843400e-17
       3453.9817   5.4958600e-17
       3456.0322   5.4733700e-17
       3458.0835   5.6845000e-17
       3460.1350   5.4431000e-17
       3462.1870   7.0913800e-17
       3464.2395   4.8409900e-17
       3466.2922   5.0646200e-17
       3468.3457   5.6717600e-17
       3470.3994   5.2847200e-17
       3472.4536   5.4215900e-17
       3474.5083   3.9271600e-17
       3476.5635   6.2873300e-17
       3478.6189   5.4879400e-17
       3480.6750   5.6460700e-17
       3482.7314   5.4803700e-17
       3484.7883   4.9295700e-17
       3486.8457   6.5811700e-17
       3488.9033   5.7918100e-17
       3490.9614   4.7518000e-17
       3493.0200   5.5938400e-17
       3495.0791   5.7520300e-17
       3497.1387   5.3687000e-17
       3499.1985   5.8908700e-17
       3501.2588   5.7479200e-17
       3503.3196   5.4935100e-17
       3505.3809   5.7503500e-17
       3507.4424   5.7803000e-17
       3509.5044   4.5588200e-17
       3511.5669   5.9047300e-17
       3513.6299   5.2111000e-17
       3515.6934   6.1495900e-17
       3517.7571   4.9461100e-17
       3519.8213   5.8295200e-17
       3521.8860   5.0629900e-17
       3523.9509   6.3400200e-17
       3526.0164   4.5162200e-17
       3528.0823   5.5607100e-17
       3530.1487   5.4289200e-17
       3532.2153   6.3587900e-17
       3534.2825   5.9298700e-17
       3536.3501   6.0587800e-17
       3538.4180   5.4931500e-17
       3540.4866   6.3599600e-17
       3542.5554   5.0417300e-17
       3544.6245   5.2625700e-17
       3546.6941   5.7182400e-17
       3548.7642   5.3313100e-17
       3550.8347   6.0544400e-17
       3552.9055   4.9195900e-17
       3554.9768   4.8315200e-17
       3557.0486   5.9706000e-17
       3559.1208   5.9030700e-17
       3561.1934   5.4210900e-17
       3563.2664   5.8894900e-17
       3565.3396   6.4681300e-17
       3567.4133   6.1299000e-17
       3569.4875   5.6919800e-17
       3571.5623   5.4843000e-17
       3573.6372   5.0864400e-17
       3575.7126   5.5423700e-17
       3577.7883   6.6888600e-17
       3579.8645   6.5447000e-17
       3581.9412   4.4445100e-17
       3584.0183   5.5719800e-17
       3586.0957   5.6610700e-17
       3588.1733   5.3515400e-17
       3590.2517   4.9591300e-17
       3592.3301   4.6568300e-17
       3594.4092   5.7612200e-17
       3596.4888   5.8682500e-17
       3598.5686   5.3151500e-17
       3600.6487   5.4969500e-17
       3602.7292   5.2809000e-17
       3604.8103   6.1908800e-17
       3606.8916   6.1563600e-17
       3608.9734   5.8648300e-17
       3611.0557   5.3233500e-17
       3613.1382   5.3574700e-17
       3615.2212   5.6771600e-17
       3617.3044   5.8362200e-17
       3619.3882   6.8482000e-17
       3621.4724   5.0389000e-17
       3623.5569   5.4582400e-17
       3625.6416   5.7597300e-17
       3627.7271   6.6003700e-17
       3629.8127   5.7593400e-17
       3631.8987   6.8713000e-17
       3633.9851   5.8496900e-17
       3636.0720   6.2512700e-17
       3638.1592   5.6552200e-17
       3640.2468   5.9972500e-17
       3642.3347   6.0910600e-17
       3644.4231   6.6908000e-17
       3646.5120   6.4800700e-17
       3648.6011   5.8681600e-17
       3650.6904   5.7671300e-17
       3652.7805   6.0934900e-17
       3654.8706   6.0713100e-17
       3656.9612   6.4027300e-17
       3659.0522   5.6237500e-17
       3661.1436   5.9541700e-17
       3663.2354   6.0040100e-17
       3665.3274   5.4979700e-17
       3667.4199   6.6626200e-17
       3669.5129   5.8701500e-17
       3671.6062   6.4871000e-17
       3673.6997   5.8160700e-17
       3675.7937   5.6278900e-17
       3677.8882   6.0929000e-17
       3679.9829   5.5933100e-17
